19.06.2025; 03:51; Start Datenerfassung

Zeit	Ausgangsspannung Br�ckenverst�rker
[s]	[V]
0,000	0,137231
0,210	0,141177
0,418	0,140848
0,627	0,141835
0,834	0,140520
1,042	0,143151
1,251	0,146439
1,459	0,146110
1,667	0,149728
1,875	0,147755
2,083	0,149728
2,291	0,151044
2,499	0,152359
2,707	0,154004
2,916	0,154332
3,124	0,155648
3,332	0,156963
3,540	0,157950
3,748	0,159266
3,956	0,163212
4,165	0,161239
4,373	0,164528
4,582	0,164528
4,790	0,166830
4,998	0,167488
5,206	0,168474
5,414	0,171763
5,622	0,171434
5,830	0,173079
6,039	0,174723
6,248	0,175052
6,456	0,176367
6,665	0,176696
6,873	0,178998
7,082	0,179327
7,291	0,180643
7,499	0,181958
7,707	0,183932
7,916	0,184260
8,124	0,185247
8,333	0,185247
8,541	0,186891
8,749	0,189194
8,958	0,192154
9,167	0,188865
9,375	0,190509
9,583	0,194127
9,791	0,195771
9,999	0,196758
10,207	0,197416
10,415	0,200047
10,623	0,201691
10,832	0,200376
11,041	0,202349
11,250	0,203007
11,458	0,204980
11,666	0,207611
11,874	0,206953
12,082	0,207282
12,291	0,208926
12,500	0,210571
12,708	0,209584
12,916	0,214517
13,125	0,215175
13,333	0,214846
13,541	0,216819
13,750	0,217806
13,958	0,219122
14,167	0,218793
14,376	0,221424
14,585	0,224055
14,794	0,223397
15,002	0,223726
15,211	0,227344
15,419	0,227015
15,627	0,229317
15,835	0,229975
16,044	0,231290
16,252	0,230961
16,460	0,232606
16,668	0,234579
16,877	0,237210
17,085	0,237210
17,293	0,238525
17,501	0,238854
17,709	0,239841
17,917	0,242472
18,125	0,243788
18,333	0,245103
18,542	0,245103
18,750	0,246747
18,958	0,247734
19,167	0,249378
19,375	0,249707
19,583	0,249707
19,791	0,252010
20,000	0,254312
20,208	0,254641
20,417	0,256285
20,626	0,256943
20,834	0,257929
21,042	0,260560
21,250	0,260231
21,458	0,260560
21,666	0,262534
21,875	0,263849
22,083	0,266809
22,292	0,268453
22,501	0,267796
22,709	0,270098
22,917	0,270098
23,125	0,272071
23,333	0,272729
23,542	0,272071
23,750	0,274373
23,958	0,275689
24,166	0,278320
24,375	0,279306
24,584	0,279306
24,792	0,279964
25,000	0,281609
25,208	0,282266
25,417	0,283253
25,626	0,284897
25,834	0,286542
26,042	0,287528
26,250	0,290159
26,458	0,288186
26,666	0,357251
26,875	0,564116
27,083	0,937064
27,291	1,086047
27,500	1,085718
27,708	1,195563
27,916	1,178791
28,124	1,156756
28,332	1,152480
28,540	1,150836
28,749	1,154453
28,957	1,171555
29,165	1,171884
29,373	1,168266
29,581	1,152809
29,789	1,147547
29,997	1,147218
30,205	1,144587
30,414	1,144916
30,622	1,144916
30,831	1,145903
31,039	1,144587
31,247	1,146231
31,455	1,147876
31,664	1,148863
31,872	1,149191
32,080	1,148534
32,289	1,149191
32,497	1,151165
32,705	1,152151
32,914	1,152480
33,123	1,154453
33,332	1,155440
33,541	1,154125
33,749	1,155440
33,957	1,157413
34,166	1,157742
34,375	1,158400
34,584	1,159058
34,793	1,159716
35,001	1,159716
35,209	1,161360
35,417	1,161689
35,625	1,163004
35,833	1,164649
36,041	1,165306
36,249	1,167280
36,457	1,166622
36,665	1,167938
36,874	1,168595
37,082	1,171555
37,290	1,170897
37,498	1,170240
37,706	1,171555
37,915	1,174515
38,123	1,174515
38,331	1,174844
38,539	1,174844
38,747	1,176817
38,956	1,178791
39,164	1,178462
39,372	1,179448
39,581	1,181093
39,789	1,182079
39,997	1,182737
40,205	1,183395
40,413	1,185368
40,621	1,184053
40,829	1,187012
41,037	1,185697
41,246	1,189315
41,454	1,190630
41,663	1,191288
41,871	1,191288
42,080	1,192932
42,288	1,192603
42,496	1,195892
42,704	1,193590
42,913	1,195234
43,121	1,197208
43,329	1,199510
43,538	1,198523
43,746	1,200497
43,954	1,200168
44,163	1,203456
44,371	1,204443
44,579	1,204772
44,787	1,206416
44,995	1,206416
45,204	1,206416
45,413	1,209047
45,621	1,208719
45,829	1,209705
46,038	1,209705
46,247	1,212665
46,455	1,211678
46,663	1,213323
46,871	1,213652
47,079	1,216283
47,287	1,216283
47,496	1,216283
47,704	1,218914
47,913	1,221545
48,121	1,221874
48,329	1,220558
48,538	1,222203
48,746	1,222860
48,955	1,223189
49,163	1,225820
49,371	1,227793
49,580	1,227136
49,788	1,230096
49,997	1,229767
50,205	1,231411
50,413	1,231411
50,621	1,231082
50,829	1,232398
51,037	1,234042
51,245	1,235358
51,452	1,236673
51,660	1,236344
51,869	1,237331
52,078	1,239304
52,287	1,240291
52,494	1,241606
52,702	1,242593
52,910	1,241935
53,119	1,242593
53,327	1,244237
53,535	1,244566
53,743	1,247526
53,951	1,246868
54,159	1,248513
54,368	1,247197
54,577	1,249500
54,786	1,252459
54,994	1,253446
55,202	1,253446
55,411	1,253775
55,619	1,255748
55,827	1,255748
56,036	1,256406
56,245	1,261010
56,453	1,259695
56,661	1,260681
56,869	1,259695
57,078	1,260353
57,286	1,260353
57,495	1,278441
57,703	1,259366
57,911	1,286663
58,119	0,939367
58,328	0,605554
58,536	0,535832
58,745	0,571022
58,953	0,546356
59,161	0,543067
59,369	0,527939
59,577	0,578586
59,785	0,539779
59,994	0,528268
60,202	0,504260
60,410	0,501958
60,618	0,492749
60,827	0,493736
61,036	0,486829
61,245	0,484198
61,453	0,485514
61,662	0,485842
61,870	0,487816
62,078	0,490118
62,287	0,489789
62,495	0,491762
62,703	0,490118
62,911	0,491762
63,119	0,491762
63,327	0,493736
63,535	0,495709
63,743	0,495709
63,951	0,498011
64,159	0,496038
64,367	0,495380
64,575	0,498669
64,784	0,498998
64,992	0,499984
65,200	0,499984
65,408	0,502615
65,616	0,504917
65,824	0,504260
66,033	0,506562
66,241	0,505904
66,449	0,507220
66,657	0,508206
66,865	0,508535
67,074	0,509522
67,282	0,510508
67,490	0,511824
67,698	0,511166
67,906	0,514784
68,115	0,513468
68,323	0,515113
68,531	0,514784
68,739	0,515442
68,947	0,517744
69,156	0,517415
69,364	0,519717
69,572	0,519388
69,781	0,521033
69,989	0,522348
70,197	0,523006
70,405	0,522019
70,614	0,523664
70,822	0,527281
71,030	0,526295
71,239	0,527939
71,448	0,528268
71,658	0,530241
71,867	0,530899
72,076	0,529583
72,284	0,530570
72,493	0,533201
72,701	0,531557
72,909	0,534845
73,118	0,534845
73,326	0,536161
73,535	0,537476
73,743	0,536819
73,951	0,539121
74,160	0,576284
74,369	0,728226
74,577	0,953508
74,786	1,173200
74,994	1,253117
75,202	1,317577
75,410	1,334350
75,618	1,352110
75,827	1,369869
76,035	1,386971
76,243	1,369869
76,451	1,341915
76,659	1,327444
76,867	1,317577
77,076	1,270548
77,284	1,314618
77,492	1,294556
77,701	1,300147
77,909	1,293898
78,117	1,284032
78,326	1,275152
78,534	1,268246
78,743	1,261668
78,951	1,270548
79,159	1,270219
79,367	1,262984
79,575	1,257064
79,783	1,252131
79,991	1,249828
80,200	1,251144
80,408	1,249500
80,616	1,249171
80,824	1,243251
81,033	1,244237
81,241	1,245224
81,449	1,243909
81,659	1,244895
81,867	1,243909
82,075	1,243580
82,283	1,243909
82,491	1,243909
82,700	1,244895
82,909	1,245553
83,117	1,245553
83,325	1,246211
83,534	1,247526
83,743	1,245882
83,952	1,248184
84,160	1,249171
84,369	1,245224
84,577	1,246868
84,785	1,246868
84,993	1,250486
85,201	1,252788
85,409	1,249828
85,617	1,245553
85,825	1,247855
86,033	1,247855
86,242	1,249500
86,450	1,250486
86,659	1,247855
86,868	1,247197
87,077	1,247197
87,285	1,252131
87,493	1,254762
87,701	1,251144
87,910	1,248184
88,119	1,249828
88,327	1,250157
88,535	1,255748
88,744	1,255090
88,953	1,251473
89,162	1,251802
89,370	1,252131
89,578	1,255090
89,786	1,257721
89,994	1,258050
90,202	1,254433
90,411	1,255419
90,619	1,255090
90,827	1,260681
91,036	1,259366
91,245	1,256077
91,453	1,256077
91,661	1,255748
91,869	1,260353
92,078	1,262984
92,286	1,262655
92,494	1,260353
92,703	1,260353
92,911	1,261668
93,120	1,265615
93,329	1,265943
93,538	1,266272
93,746	1,264628
93,954	1,263970
94,162	1,267917
94,370	1,270877
94,578	1,270219
94,786	1,267259
94,994	1,266930
95,203	1,268574
95,411	1,271534
95,620	1,272521
95,829	1,276139
96,037	1,272850
96,245	1,272521
96,453	1,272850
96,662	1,275152
96,870	1,277783
97,079	1,277454
97,287	1,277125
97,495	1,276468
97,704	1,277454
97,912	1,280085
98,120	1,279099
98,328	1,280085
98,536	1,278112
98,745	1,281401
98,953	1,283045
99,161	1,284032
99,369	1,285676
99,577	1,281730
99,785	1,284032
99,994	1,285018
100,203	1,286992
100,412	1,287978
100,621	1,286992
100,829	1,286005
101,038	1,286334
101,247	1,288636
101,455	1,290938
101,663	1,291267
101,871	1,290609
102,080	1,291267
102,288	1,292254
102,496	1,291925
102,704	1,295871
102,913	1,293898
103,122	1,294227
103,330	1,294556
103,538	1,295214
103,746	1,297516
103,954	1,299489
104,162	1,297187
104,371	1,297845
104,579	1,299489
104,787	1,301462
104,995	1,296529
105,203	1,266930
105,411	0,811762
105,619	0,673632
105,828	0,703231
106,036	0,680868
106,244	0,728555
106,453	0,673961
106,661	0,683828
106,869	0,691063
107,077	0,688432
107,285	0,688432
107,494	0,682183
107,702	0,682183
107,910	0,683170
108,119	0,680539
108,328	0,680539
108,537	0,681197
108,745	0,679881
108,953	0,681197
109,161	0,682183
109,370	0,681854
109,578	0,680539
109,786	0,682183
109,995	0,685472
110,204	0,683170
110,413	0,683828
110,621	0,685472
110,830	0,684814
111,038	0,686788
111,246	0,688432
111,455	0,687116
111,664	0,688103
111,873	0,687445
112,081	0,688103
112,289	0,690076
112,498	0,690405
112,706	0,691063
112,914	0,692378
113,122	0,691063
113,330	0,693036
113,539	0,692378
113,747	0,695010
113,956	0,695010
114,164	0,694023
114,372	0,695338
114,580	0,696654
114,789	0,697969
114,997	0,698298
115,205	0,698956
115,413	0,698956
115,621	0,699614
115,829	0,700600
116,038	0,701258
116,246	0,700600
116,454	0,702245
116,663	0,702574
116,871	0,705534
117,079	0,706520
117,287	0,702574
117,495	0,705534
117,703	0,707178
117,912	0,708494
118,120	0,707178
118,329	0,708494
118,537	0,709151
118,745	0,710467
118,953	0,710138
119,161	0,712440
119,369	0,712111
119,577	0,711782
119,785	0,714742
119,993	0,718360
120,202	0,720662
120,411	0,720662
120,620	0,719675
120,828	0,721320
121,036	0,722306
121,245	0,723293
121,453	0,724937
121,661	0,724609
121,869	0,724280
122,077	0,726582
122,285	0,725266
122,494	0,726582
122,703	0,728884
122,911	0,730200
123,119	0,729871
123,327	0,729542
123,535	0,730857
123,744	0,730200
123,953	0,732502
124,161	0,732173
124,369	0,733159
124,577	0,733488
124,786	0,733817
124,994	0,735791
125,202	0,734146
125,411	0,735791
125,620	0,736448
125,828	0,738750
126,036	0,737764
126,245	0,737764
126,453	0,740724
126,661	0,740724
126,869	0,741053
127,078	0,741053
127,287	0,744012
127,495	0,742039
127,703	0,742368
127,911	0,747301
128,120	0,745986
128,329	0,746644
128,537	0,745986
128,745	0,747301
128,953	0,746315
129,162	0,748617
129,370	0,749275
129,578	0,748946
129,786	0,750261
129,994	0,751906
130,202	0,752563
130,411	0,753221
130,619	0,753221
130,827	0,754208
131,035	0,754537
131,243	0,756510
131,451	0,756181
131,660	0,756181
131,868	0,756839
132,077	0,756839
132,285	0,758154
132,493	0,759470
132,702	0,760785
132,911	0,761114
133,119	0,760456
133,327	0,762101
133,535	0,762430
133,744	0,799922
133,953	0,921278
134,161	1,087033
134,369	1,171226
134,577	1,323497
134,786	1,598769
134,995	1,630999
135,203	1,645141
135,412	1,603044
135,621	1,586272
135,830	1,584956
136,038	1,630999
136,247	1,628039
136,455	1,627053
136,663	1,625408
136,871	1,553055
137,080	1,534309
137,288	1,534638
137,496	1,532664
137,705	1,533980
137,913	1,529047
138,121	1,525758
138,329	1,524442
138,537	1,526087
138,745	1,527073
138,953	1,525758
139,161	1,524113
139,370	1,523785
139,578	1,525758
139,786	1,525100
139,994	1,524771
140,202	1,522469
140,411	1,519838
140,619	1,520825
140,827	1,519180
141,036	1,520825
141,244	1,519838
141,452	1,520167
141,662	1,519180
141,870	1,519180
142,078	1,519509
142,287	1,520167
142,495	1,517865
142,703	1,517865
142,912	1,519509
143,120	1,518523
143,328	1,519509
143,536	1,517865
143,745	1,518194
143,953	1,519509
144,161	1,518194
144,370	1,519509
144,579	1,518194
144,788	1,517536
144,997	1,518851
145,205	1,518851
145,413	1,517207
145,621	1,517207
145,829	1,516549
146,037	1,518194
146,246	1,517207
146,454	1,516220
146,662	1,517207
146,870	1,516878
147,079	1,516549
147,287	1,519838
147,496	1,517865
147,704	1,517536
147,912	1,518194
148,121	1,518194
148,329	1,518851
148,537	1,519838
148,745	1,519180
148,953	1,519509
149,161	1,519838
149,370	1,519509
149,579	1,520167
149,786	1,521154
149,994	1,519838
150,203	1,521482
150,412	1,523785
150,620	1,521154
150,828	1,522469
151,037	1,523127
151,245	1,520825
151,453	1,523456
151,662	1,523456
151,870	1,522469
152,078	1,524113
152,286	1,523456
152,494	1,524113
152,702	1,524771
152,910	1,523785
153,118	1,525429
153,327	1,526087
153,535	1,526087
153,743	1,525758
153,952	1,525100
154,160	1,524771
154,368	1,525429
154,576	1,529047
154,784	1,526745
154,992	1,529047
155,201	1,529704
155,409	1,528389
155,617	1,531020
155,825	1,530691
156,033	1,529376
156,242	1,529376
156,450	1,530033
156,658	1,532007
156,866	1,529704
157,074	1,533322
157,282	1,532993
157,491	1,532664
157,700	1,532335
157,909	1,532007
158,118	1,534966
158,327	1,534309
158,536	1,534638
158,744	1,532335
158,952	1,535624
159,161	1,535953
159,370	1,537269
159,578	1,535295
159,786	1,535953
159,994	1,537269
160,202	1,538255
160,410	1,538584
160,618	1,538913
160,826	1,540229
161,034	1,539900
161,242	1,540229
161,450	1,541544
161,659	1,540229
161,867	1,540229
162,075	1,540886
162,283	1,540886
162,491	1,542531
162,699	1,542860
162,907	1,542202
163,115	1,543846
163,323	1,542531
163,532	1,542860
163,740	1,545820
163,949	1,544833
164,157	1,543846
164,365	1,545820
164,573	1,545162
164,782	1,548122
164,990	1,545820
165,198	1,548451
165,406	1,548122
165,614	1,550095
165,822	1,549437
166,030	1,551082
166,239	1,548451
166,447	1,551082
166,655	1,550424
166,864	1,551410
167,073	1,551739
167,281	1,551739
167,490	1,553055
167,698	1,551739
167,906	1,555357
168,114	1,553713
168,322	1,556015
168,531	1,556015
168,740	1,555357
168,949	1,556015
169,158	1,557659
169,366	1,556673
169,575	1,557659
169,783	1,557988
169,992	1,559304
170,200	1,559304
170,408	1,560619
170,616	1,558975
170,825	1,560290
171,033	1,561935
171,241	1,560619
171,449	1,560948
171,657	1,563908
171,865	1,561935
172,073	1,563250
172,282	1,562592
172,490	1,565223
172,698	1,566539
172,906	1,566210
173,115	1,566210
173,324	1,566210
173,533	1,569828
173,741	1,568183
173,949	1,569828
174,158	1,569499
174,366	1,567197
174,574	1,568512
174,783	1,570157
174,992	1,572130
175,200	1,571801
175,407	1,572459
175,615	1,571143
175,823	1,571472
176,031	1,572788
176,240	1,572459
176,448	1,574103
176,656	1,574103
176,864	1,574761
177,073	1,577392
177,281	1,576734
177,489	1,576734
177,697	1,576076
177,905	1,577392
178,113	1,577392
178,322	1,578050
178,530	1,578050
178,738	1,581010
178,946	1,581010
179,154	1,580352
179,362	1,581338
179,570	1,582983
179,778	1,581010
179,987	1,583312
180,195	1,583641
180,403	1,582654
180,612	1,585285
180,820	1,584956
181,028	1,583969
181,237	1,585943
181,445	1,587916
181,653	1,586929
181,860	1,585943
182,068	1,588903
182,277	1,587587
182,486	1,587258
182,694	1,587587
182,903	1,588903
183,111	1,589232
183,319	1,591534
183,527	1,589560
183,735	1,590876
183,943	1,592520
184,151	1,590547
184,359	1,593507
184,568	1,588574
184,776	1,279756
184,984	1,011062
185,192	0,971268
185,400	0,961730
185,608	1,011062
185,816	1,110055
186,024	1,152809
186,232	1,128143
186,439	1,106766
186,647	1,149520
186,856	1,135378
187,064	1,124854
187,272	1,123868
187,481	1,124525
187,689	1,110384
187,897	1,109068
188,105	1,107095
188,313	1,107753
188,521	1,106437
188,729	1,107095
188,937	1,107753
189,145	1,106108
189,353	1,104464
189,561	1,108410
189,770	1,107424
189,978	1,106108
190,186	1,107424
190,394	1,108082
190,602	1,107095
190,810	1,108739
191,019	1,108739
191,227	1,110384
191,435	1,110713
191,643	1,110384
191,851	1,111041
192,059	1,112357
192,267	1,111370
192,475	1,110713
192,683	1,112357
192,892	1,112357
193,100	1,113344
193,309	1,112686
193,517	1,114001
193,725	1,113672
193,933	1,113015
194,142	1,113672
194,350	1,114988
194,559	1,116304
194,768	1,116304
194,976	1,116632
195,184	1,115646
195,392	1,114988
195,600	1,115975
195,808	1,115317
196,016	1,118277
196,224	1,116961
196,432	1,118935
196,640	1,117290
196,847	1,119263
197,055	1,119592
197,264	1,121237
197,472	1,119263
197,680	1,121237
197,888	1,121566
198,096	1,121894
198,304	1,122881
198,512	1,121894
198,720	1,123210
198,928	1,123210
199,137	1,123868
199,345	1,122552
199,554	1,124854
199,763	1,125841
199,971	1,126170
200,179	1,125841
200,387	1,127485
200,595	1,126170
200,803	1,126828
201,011	1,126828
201,219	1,128472
201,427	1,126828
201,636	1,127485
201,844	1,128472
202,053	1,130116
202,262	1,128472
202,471	1,130774
202,680	1,129459
202,888	1,129130
203,097	1,131103
203,305	1,132419
203,513	1,130445
203,721	1,133405
203,929	1,131103
204,137	1,132419
204,346	1,132747
204,554	1,133734
204,762	1,133076
204,971	1,135050
205,179	1,133405
205,387	1,133405
205,595	1,136036
205,803	1,135378
206,011	1,136036
206,219	1,135050
206,428	1,138996
206,637	1,137681
206,845	1,137023
207,053	1,136694
207,261	1,136694
207,470	1,138010
207,678	1,137023
207,886	1,139983
208,094	1,142285
208,302	1,140312
208,510	1,141956
208,718	1,140641
208,926	1,140969
209,135	1,141627
209,344	1,142614
209,552	1,142614
209,760	1,142285
209,968	1,143929
210,176	1,143600
210,384	1,145245
210,592	1,143929
210,800	1,144258
211,009	1,144258
211,217	1,145903
211,425	1,144587
211,633	1,144258
211,842	1,147547
212,051	1,147218
212,259	1,141298
212,468	1,157742
212,677	1,432685
212,885	1,577721
213,093	1,763537
213,302	1,800043
213,510	1,894431
213,718	1,893445
213,927	1,894431
214,136	1,887196
214,344	1,881934
214,552	1,874041
214,760	1,869437
214,968	1,869437
215,176	1,870752
215,385	1,866148
215,593	1,864174
215,801	1,864832
216,009	1,853650
216,217	1,867134
216,425	1,867792
216,634	1,863188
216,842	1,860557
217,050	1,857597
217,258	1,856939
217,466	1,859241
217,676	1,858255
217,885	1,857268
218,094	1,854637
218,302	1,855295
218,510	1,854308
218,718	1,856610
218,927	1,854308
219,136	1,855295
219,344	1,853650
219,553	1,854308
219,761	1,853650
219,969	1,854966
220,177	1,853979
220,385	1,853321
220,593	1,856610
220,801	1,854308
221,009	1,857597
221,218	1,855952
221,427	1,856939
221,636	1,856939
221,844	1,857597
222,053	1,857597
222,261	1,857926
222,469	1,857926
222,678	1,856939
222,887	1,857926
223,096	1,857926
223,304	1,859570
223,512	1,859570
223,721	1,859241
223,929	1,858583
224,137	1,860228
224,346	1,859241
224,554	1,860886
224,762	1,860557
224,971	1,859570
225,180	1,857597
225,388	1,860886
225,596	1,861215
225,805	1,861872
226,014	1,863846
226,222	1,862859
226,430	1,862201
226,639	1,863188
226,848	1,862530
227,057	1,862530
227,265	1,863846
227,473	1,862530
227,681	1,864174
227,889	1,863517
228,097	1,865490
228,305	1,861872
228,513	1,865819
228,721	1,865490
228,929	1,864832
229,137	1,864832
229,345	1,866148
229,553	1,866477
229,762	1,867463
229,971	1,864174
230,179	1,867134
230,387	1,866477
230,596	1,868450
230,804	1,867463
231,013	1,868450
231,222	1,868450
231,430	1,868450
231,638	1,868121
231,846	1,868779
232,055	1,871081
232,263	1,870752
232,472	1,867134
232,680	1,871739
232,888	1,870752
233,096	1,870094
233,305	1,871739
233,513	1,872725
233,721	1,874041
233,930	1,872396
234,139	1,873383
234,347	1,872396
234,556	1,874370
234,764	1,874041
234,972	1,875027
235,181	1,875356
235,390	1,875356
235,598	1,875356
235,807	1,876014
236,016	1,874699
236,224	1,875027
236,432	1,875356
236,640	1,876343
236,849	1,877658
237,058	1,874699
237,266	1,877658
237,475	1,878974
237,683	1,878316
237,891	1,878316
238,099	1,879303
238,307	1,879632
238,515	1,879632
238,723	1,879961
238,931	1,879961
239,139	1,880290
239,347	1,881276
239,556	1,880290
239,765	1,880290
239,973	1,881934
240,181	1,882592
240,389	1,882921
240,598	1,882921
240,806	1,882921
241,014	1,883249
241,222	1,882921
241,430	1,883578
241,638	1,882921
241,846	1,885223
242,054	1,883578
242,262	1,885552
242,470	1,886867
242,678	1,886209
242,886	1,887196
243,094	1,888183
243,303	1,886867
243,511	1,889827
243,720	1,887854
243,928	1,887525
244,137	1,890156
244,345	1,887525
244,553	1,888511
244,761	1,888840
244,970	1,889169
245,179	1,890485
245,387	1,889498
245,595	1,889169
245,803	1,888511
246,011	1,891471
246,219	1,892129
246,428	1,897391
246,636	1,812212
246,844	1,241935
247,052	1,126170
247,261	1,111041
247,470	1,129788
247,678	1,141298
247,887	1,302778
248,095	1,240620
248,304	1,278770
248,512	1,274494
248,720	1,216283
248,929	1,194577
249,137	1,186355
249,346	1,178791
249,554	1,169253
249,762	1,166293
249,970	1,165306
250,178	1,166293
250,386	1,166951
250,594	1,164649
250,802	1,164649
251,010	1,165635
251,219	1,167280
251,427	1,164649
251,635	1,165635
251,843	1,166622
252,051	1,164649
252,259	1,164978
252,468	1,165306
252,676	1,164320
252,884	1,165306
253,092	1,165306
253,300	1,166622
253,508	1,164978
253,716	1,165964
253,925	1,165306
254,134	1,165306
254,342	1,166622
254,551	1,165964
254,760	1,164320
254,968	1,167280
255,176	1,164978
255,384	1,166951
255,592	1,165306
255,800	1,163991
256,008	1,167938
256,216	1,170897
256,424	1,167609
256,633	1,167280
256,841	1,168924
257,050	1,169253
257,259	1,168924
257,467	1,169253
257,677	1,167938
257,886	1,166622
258,095	1,168924
258,303	1,169253
258,511	1,166951
258,719	1,166622
258,927	1,166951
259,135	1,168595
259,344	1,168595
259,552	1,168924
259,760	1,167609
259,968	1,169253
260,177	1,169911
260,386	1,169253
260,594	1,168595
260,803	1,168266
261,012	1,169911
261,221	1,171226
261,429	1,170240
261,637	1,169911
261,845	1,171226
262,053	1,170240
262,262	1,170240
262,470	1,169911
262,679	1,172213
262,888	1,168924
263,096	1,172542
263,304	1,170240
263,512	1,172542
263,720	1,171555
263,929	1,172542
264,138	1,172542
264,346	1,173528
264,554	1,174515
264,762	1,172871
264,970	1,175502
265,178	1,176817
265,386	1,174186
265,595	1,172542
265,803	1,175173
266,011	1,174515
266,219	1,175502
266,427	1,174186
266,635	1,173528
266,843	1,176159
267,051	1,174844
267,259	1,175831
267,468	1,176817
267,676	1,177804
267,884	1,176159
268,092	1,179448
268,300	1,177804
268,509	1,178791
268,718	1,179119
268,926	1,179119
269,134	1,179777
269,343	1,175831
269,551	1,179119
269,760	1,178133
269,968	1,179777
270,176	1,181422
270,384	1,179119
270,593	1,178791
270,801	1,179448
271,010	1,180106
271,219	1,180106
271,427	1,179448
271,635	1,180764
271,844	1,181750
272,053	1,180435
272,261	1,181093
272,469	1,181093
272,677	1,181750
272,885	1,181422
273,094	1,180435
273,302	1,181422
273,511	1,182079
273,719	1,180764
273,927	1,183724
274,135	1,181093
274,343	1,183395
274,552	1,181422
274,761	1,183395
274,970	1,183395
275,179	1,182408
275,387	1,183724
275,596	1,184710
275,805	1,185039
276,013	1,184710
276,222	1,185368
276,430	1,184381
276,638	1,186355
276,846	1,186026
277,054	1,184710
277,262	1,186355
277,470	1,185697
277,678	1,186026
277,886	1,185368
278,094	1,187341
278,302	1,183724
278,510	1,187670
278,718	1,187341
278,926	1,187670
279,134	1,187999
279,342	1,187341
279,550	1,188986
279,759	1,189972
279,967	1,190301
280,175	1,188328
280,383	1,189972
280,592	1,190301
280,800	1,190959
281,008	1,191617
281,216	1,190301
281,424	1,190959
281,633	1,190630
281,841	1,190630
282,049	1,192275
282,257	1,191288
282,465	1,193261
282,673	1,192603
282,882	1,192932
283,091	1,192603
283,300	1,191946
283,508	1,193919
283,716	1,191617
283,924	1,194248
284,133	1,193919
284,342	1,193919
284,551	1,195234
284,759	1,201812
284,967	1,216612
285,176	1,209047
285,384	1,227465
285,592	1,236344
285,800	1,254104
286,008	1,251802
286,216	1,445840
286,424	1,644483
286,632	1,832273
286,840	1,900351
287,048	1,916795
287,256	1,998686
287,464	1,951985
287,672	1,964483
287,880	2,021379
288,089	2,014472
288,298	2,007237
288,507	1,969416
288,715	1,956589
288,923	1,924688
289,131	1,929292
289,339	1,925017
289,547	1,919755
289,756	1,916466
289,964	1,905942
290,172	1,910218
290,381	1,910218
290,590	1,909560
290,798	1,890485
291,006	1,887525
291,214	1,878974
291,422	1,878974
291,630	1,874370
291,838	1,867134
292,046	1,867463
292,254	1,865490
292,463	1,863517
292,671	1,864174
292,879	1,866148
293,087	1,866148
293,296	1,864832
293,505	1,866148
293,713	1,865161
293,921	1,867792
294,129	1,868450
294,337	1,865819
294,546	1,866477
294,754	1,867134
294,963	1,866805
295,171	1,867463
295,380	1,869108
295,588	1,867792
295,796	1,868779
296,004	1,869765
296,212	1,869437
296,420	1,866805
296,629	1,868450
296,837	1,868450
297,045	1,868450
297,254	1,869437
297,462	1,870094
297,671	1,869108
297,879	1,871410
298,087	1,869437
298,295	1,869437
298,503	1,868450
298,712	1,870752
298,920	1,872068
299,128	1,870423
299,336	1,870752
299,545	1,872725
299,754	1,873054
299,962	1,871739
300,170	1,870094
300,378	1,873054
300,587	1,872396
300,795	1,874699
301,004	1,873712
301,212	1,874041
301,420	1,873054
301,628	1,872725
301,837	1,875027
302,046	1,875027
302,254	1,876343
302,462	1,874699
302,670	1,873712
302,879	1,874041
303,087	1,875027
303,295	1,876343
303,503	1,876343
303,711	1,877001
303,919	1,877330
304,127	1,877001
304,336	1,877987
304,544	1,876343
304,752	1,876672
304,960	1,877658
305,168	1,876672
305,376	1,877001
305,584	1,877987
305,793	1,878316
306,001	1,878316
306,210	1,879303
306,419	1,877001
306,627	1,880290
306,835	1,880290
307,043	1,880618
307,251	1,881276
307,460	1,882263
307,670	1,879632
307,878	1,880947
308,086	1,882263
308,295	1,882263
308,503	1,880947
308,711	1,882592
308,919	1,883249
309,128	1,881605
309,336	1,882592
309,544	1,882263
309,753	1,883249
309,961	1,883249
310,169	1,883249
310,377	1,883907
310,585	1,883578
310,793	1,884565
311,002	1,883578
311,210	1,884894
311,418	1,885880
311,626	1,884894
311,834	1,885223
312,042	1,886867
312,250	1,887854
312,458	1,885552
312,666	1,883249
312,875	1,878316
313,083	1,883578
313,291	1,657638
313,499	1,281730
313,707	1,195892
313,915	1,231082
314,123	1,222531
314,331	1,451760
314,539	1,432685
314,747	1,251802
314,955	1,311329
315,164	1,304422
315,372	1,285018
315,581	1,265943
315,788	1,263970
315,997	1,260353
316,205	1,259037
316,414	1,258708
316,622	1,259695
316,830	1,257721
317,038	1,259366
317,246	1,258050
317,454	1,258708
317,664	1,258379
317,872	1,260353
318,080	1,260024
318,288	1,260681
318,496	1,258379
318,704	1,257393
318,913	1,261339
319,121	1,258708
319,329	1,259695
319,538	1,258708
319,747	1,260353
319,955	1,259037
320,163	1,260681
320,371	1,259366
320,579	1,258379
320,787	1,259695
320,995	1,260353
